SpectraSuite Data File
++++++++++++++++++++++++++++++++++++
Date: Sat Oct 08 20:24:14 PDT 2016
User: ugastro
Dark Spectrum Present: No
Reference Spectrum Present: No
Number of Sampled Component Spectra: 1
Spectrometers: USB2G5981
Integration Time (usec): 30000000 (USB2G5981)
Spectra Averaged: 1 (USB2G5981)
Boxcar Smoothing: 0 (USB2G5981)
Correct for Electrical Dark: No (USB2G5981)
Strobe/Lamp Enabled: No (USB2G5981)
Correct for Detector Non-linearity: No (USB2G5981)
Correct for Stray Light: No (USB2G5981)
Number of Pixels in Processed Spectrum: 2048
>>>>>Begin Processed Spectral Data<<<<<
344.31	0.00
344.51	117.00
344.71	120.00
344.90	119.00
345.10	119.00
345.30	1310.00
345.50	227.00
345.69	266.00
345.89	1115.00
346.09	214.00
346.28	195.00
346.48	281.00
346.68	377.00
346.88	244.00
347.07	224.00
347.27	220.00
347.47	263.00
347.66	301.00
347.86	392.00
348.06	206.00
348.25	190.00
348.45	892.00
348.65	196.00
348.85	191.00
349.04	197.00
349.24	360.00
349.44	1383.00
349.63	169.00
349.83	397.00
350.02	552.00
350.22	383.00
350.42	897.00
350.61	427.00
350.81	399.00
351.01	336.00
351.20	386.00
351.40	356.00
351.60	804.00
351.79	403.00
351.99	624.00
352.19	204.00
352.38	194.00
352.58	321.00
352.77	393.00
352.97	258.00
353.17	389.00
353.36	257.00
353.56	256.00
353.75	354.00
353.95	191.00
354.15	343.00
354.34	242.00
354.54	216.00
354.73	394.00
354.93	543.00
355.13	210.00
355.32	194.00
355.52	220.00
355.71	188.00
355.91	392.00
356.10	207.00
356.30	377.00
356.50	205.00
356.69	220.00
356.89	232.00
357.08	184.00
357.28	201.00
357.47	194.00
357.67	1207.00
357.86	235.00
358.06	375.00
358.25	195.00
358.45	210.00
358.65	196.00
358.84	385.00
359.04	232.00
359.23	357.00
359.43	340.00
359.62	206.00
359.82	217.00
360.01	1269.00
360.21	166.00
360.40	229.00
360.60	173.00
360.79	180.00
360.99	370.00
361.18	396.00
361.38	199.00
361.57	355.00
361.77	186.00
361.96	1684.00
362.16	1463.00
362.35	364.00
362.54	357.00
362.74	512.00
362.93	174.00
363.13	194.00
363.32	512.00
363.52	228.00
363.71	183.00
363.91	2833.00
364.10	360.00
364.30	185.00
364.49	203.00
364.68	367.00
364.88	224.00
365.07	188.00
365.27	183.00
365.46	504.00
365.66	203.00
365.85	358.00
366.04	202.00
366.24	174.00
366.43	187.00
366.63	187.00
366.82	221.00
367.01	418.00
367.21	188.00
367.40	205.00
367.60	373.00
367.79	186.00
367.98	184.00
368.18	173.00
368.37	199.00
368.56	176.00
368.76	484.00
368.95	367.00
369.15	1273.00
369.34	528.00
369.53	186.00
369.73	411.00
369.92	182.00
370.11	355.00
370.31	273.00
370.50	189.00
370.69	316.00
370.89	191.00
371.08	372.00
371.27	190.00
371.47	170.00
371.66	313.00
371.85	403.00
372.05	220.00
372.24	199.00
372.43	361.00
372.63	181.00
372.82	218.00
373.01	178.00
373.21	178.00
373.40	213.00
373.59	235.00
373.78	204.00
373.98	519.00
374.17	1888.00
374.36	452.00
374.56	173.00
374.75	200.00
374.94	178.00
375.13	356.00
375.33	176.00
375.52	226.00
375.71	380.00
375.91	443.00
376.10	189.00
376.29	340.00
376.48	233.00
376.68	366.00
376.87	190.00
377.06	462.00
377.25	213.00
377.45	600.00
377.64	389.00
377.83	173.00
378.02	195.00
378.21	181.00
378.41	190.00
378.60	190.00
378.79	371.00
378.98	719.00
379.18	183.00
379.37	372.00
379.56	376.00
379.75	198.00
379.94	200.00
380.14	355.00
380.33	331.00
380.52	796.00
380.71	184.00
380.90	346.00
381.09	334.00
381.29	199.00
381.48	179.00
381.67	332.00
381.86	838.00
382.05	527.00
382.25	2169.00
382.44	399.00
382.63	231.00
382.82	198.00
383.01	181.00
383.20	195.00
383.39	189.00
383.59	205.00
383.78	345.00
383.97	200.00
384.16	191.00
384.35	379.00
384.54	181.00
384.73	360.00
384.92	370.00
385.12	358.00
385.31	202.00
385.50	192.00
385.69	353.00
385.88	1380.00
386.07	507.00
386.26	183.00
386.45	178.00
386.64	532.00
386.84	187.00
387.03	181.00
387.22	190.00
387.41	197.00
387.60	201.00
387.79	719.00
387.98	690.00
388.17	1140.00
388.36	304.00
388.55	1030.00
388.74	348.00
388.93	225.00
389.12	223.00
389.31	182.00
389.51	193.00
389.70	183.00
389.89	176.00
390.08	194.00
390.27	562.00
390.46	369.00
390.65	219.00
390.84	1069.00
391.03	328.00
391.22	250.00
391.41	579.00
391.60	201.00
391.79	205.00
391.98	1185.00
392.17	177.00
392.36	345.00
392.55	184.00
392.74	189.00
392.93	510.00
393.12	200.00
393.31	201.00
393.50	512.00
393.69	203.00
393.88	421.00
394.07	389.00
394.26	195.00
394.45	503.00
394.64	185.00
394.83	192.00
395.02	222.00
395.21	202.00
395.40	362.00
395.59	191.00
395.77	177.00
395.96	198.00
396.15	207.00
396.34	339.00
396.53	203.00
396.72	375.00
396.91	210.00
397.10	352.00
397.29	397.00
397.48	187.00
397.67	338.00
397.86	182.00
398.05	199.00
398.24	349.00
398.43	356.00
398.61	341.00
398.80	185.00
398.99	183.00
399.18	174.00
399.37	181.00
399.56	186.00
399.75	499.00
399.94	383.00
400.13	935.00
400.31	1742.00
400.50	169.00
400.69	3198.00
400.88	261.00
401.07	189.00
401.26	180.00
401.45	351.00
401.64	381.00
401.82	571.00
402.01	193.00
402.20	323.00
402.39	182.00
402.58	206.00
402.77	209.00
402.95	1732.00
403.14	201.00
403.33	477.00
403.52	211.00
403.71	1002.00
403.90	188.00
404.08	206.00
404.27	310.00
404.46	213.00
404.65	210.00
404.84	367.00
405.02	204.00
405.21	180.00
405.40	202.00
405.59	368.00
405.78	211.00
405.96	193.00
406.15	387.00
406.34	434.00
406.53	205.00
406.72	204.00
406.90	496.00
407.09	594.00
407.28	221.00
407.47	367.00
407.65	188.00
407.84	549.00
408.03	209.00
408.22	186.00
408.40	214.00
408.59	370.00
408.78	183.00
408.97	212.00
409.15	1206.00
409.34	168.00
409.53	188.00
409.72	299.00
409.90	184.00
410.09	198.00
410.28	176.00
410.47	199.00
410.65	770.00
410.84	181.00
411.03	384.00
411.21	192.00
411.40	183.00
411.59	173.00
411.78	176.00
411.96	336.00
412.15	305.00
412.34	361.00
412.52	364.00
412.71	1484.00
412.90	592.00
413.08	175.00
413.27	210.00
413.46	216.00
413.64	320.00
413.83	556.00
414.02	175.00
414.20	351.00
414.39	236.00
414.58	393.00
414.76	610.00
414.95	212.00
415.14	188.00
415.32	175.00
415.51	362.00
415.69	190.00
415.88	927.00
416.07	176.00
416.25	175.00
416.44	186.00
416.63	180.00
416.81	197.00
417.00	251.00
417.18	334.00
417.37	218.00
417.56	355.00
417.74	444.00
417.93	178.00
418.11	219.00
418.30	359.00
418.49	181.00
418.67	199.00
418.86	197.00
419.04	1028.00
419.23	310.00
419.42	224.00
419.60	209.00
419.79	339.00
419.97	218.00
420.16	407.00
420.34	338.00
420.53	352.00
420.72	291.00
420.90	416.00
421.09	371.00
421.27	191.00
421.46	200.00
421.64	323.00
421.83	174.00
422.01	188.00
422.20	343.00
422.38	354.00
422.57	207.00
422.75	193.00
422.94	206.00
423.12	192.00
423.31	218.00
423.49	378.00
423.68	184.00
423.86	188.00
424.05	911.00
424.23	167.00
424.42	195.00
424.60	353.00
424.79	523.00
424.97	379.00
425.16	179.00
425.34	357.00
425.53	208.00
425.71	177.00
425.90	183.00
426.08	424.00
426.27	169.00
426.45	1037.00
426.64	344.00
426.82	233.00
427.01	389.00
427.19	751.00
427.38	2134.00
427.56	258.00
427.74	513.00
427.93	182.00
428.11	385.00
428.30	201.00
428.48	354.00
428.67	189.00
428.85	182.00
429.03	371.00
429.22	1485.00
429.40	160.00
429.59	191.00
429.77	172.00
429.95	175.00
430.14	328.00
430.32	231.00
430.51	193.00
430.69	200.00
430.87	206.00
431.06	1266.00
431.24	164.00
431.43	289.00
431.61	240.00
431.79	224.00
431.98	178.00
432.16	334.00
432.34	173.00
432.53	179.00
432.71	380.00
432.90	182.00
433.08	180.00
433.26	555.00
433.45	257.00
433.63	171.00
433.81	918.00
434.00	1179.00
434.18	163.00
434.36	192.00
434.55	361.00
434.73	215.00
434.91	201.00
435.10	353.00
435.28	527.00
435.46	858.00
435.65	185.00
435.83	374.00
436.01	213.00
436.20	559.00
436.38	307.00
436.56	185.00
436.74	175.00
436.93	183.00
437.11	275.00
437.29	985.00
437.48	187.00
437.66	175.00
437.84	476.00
438.02	231.00
438.21	349.00
438.39	192.00
438.57	195.00
438.75	1237.00
438.94	150.00
439.12	179.00
439.30	182.00
439.48	169.00
439.67	181.00
439.85	1341.00
440.03	147.00
440.21	178.00
440.40	192.00
440.58	757.00
440.76	341.00
440.94	208.00
441.13	189.00
441.31	173.00
441.49	277.00
441.67	185.00
441.85	1088.00
442.04	179.00
442.22	167.00
442.40	202.00
442.58	219.00
442.76	1041.00
442.95	194.00
443.13	356.00
443.31	217.00
443.49	564.00
443.67	164.00
443.86	322.00
444.04	171.00
444.22	175.00
444.40	170.00
444.58	194.00
444.76	213.00
444.95	276.00
445.13	382.00
445.31	175.00
445.49	173.00
445.67	173.00
445.85	173.00
446.04	199.00
446.22	181.00
446.40	184.00
446.58	189.00
446.76	329.00
446.94	203.00
447.12	171.00
447.30	353.00
447.49	183.00
447.67	328.00
447.85	2182.00
448.03	335.00
448.21	173.00
448.39	179.00
448.57	174.00
448.75	170.00
448.93	174.00
449.12	478.00
449.30	179.00
449.48	181.00
449.66	344.00
449.84	373.00
450.02	210.00
450.20	371.00
450.38	2780.00
450.56	173.00
450.74	502.00
450.92	201.00
451.10	177.00
451.28	297.00
451.46	347.00
451.64	298.00
451.83	172.00
452.01	378.00
452.19	190.00
452.37	168.00
452.55	169.00
452.73	169.00
452.91	169.00
453.09	529.00
453.27	196.00
453.45	179.00
453.63	192.00
453.81	178.00
453.99	200.00
454.17	175.00
454.35	183.00
454.53	188.00
454.71	371.00
454.89	169.00
455.07	492.00
455.25	228.00
455.43	321.00
455.61	385.00
455.79	198.00
455.97	190.00
456.15	173.00
456.33	350.00
456.51	371.00
456.69	192.00
456.87	169.00
457.05	799.00
457.23	170.00
457.41	374.00
457.59	332.00
457.76	503.00
457.94	166.00
458.12	186.00
458.30	186.00
458.48	188.00
458.66	1756.00
458.84	330.00
459.02	177.00
459.20	533.00
459.38	240.00
459.56	183.00
459.74	170.00
459.92	164.00
460.10	172.00
460.27	182.00
460.45	378.00
460.63	169.00
460.81	336.00
460.99	175.00
461.17	169.00
461.35	216.00
461.53	338.00
461.71	174.00
461.88	343.00
462.06	181.00
462.24	183.00
462.42	298.00
462.60	363.00
462.78	170.00
462.96	204.00
463.14	396.00
463.31	746.00
463.49	169.00
463.67	174.00
463.85	186.00
464.03	177.00
464.21	194.00
464.38	168.00
464.56	303.00
464.74	2131.00
464.92	331.00
465.10	334.00
465.28	168.00
465.45	1137.00
465.63	383.00
465.81	330.00
465.99	188.00
466.17	176.00
466.35	204.00
466.52	836.00
466.70	170.00
466.88	371.00
467.06	181.00
467.24	287.00
467.41	529.00
467.59	340.00
467.77	1513.00
467.95	154.00
468.12	183.00
468.30	342.00
468.48	173.00
468.66	513.00
468.84	334.00
469.01	171.00
469.19	187.00
469.37	175.00
469.55	326.00
469.72	175.00
469.90	516.00
470.08	334.00
470.26	218.00
470.43	616.00
470.61	173.00
470.79	194.00
470.96	190.00
471.14	192.00
471.32	364.00
471.50	177.00
471.67	165.00
471.85	335.00
472.03	500.00
472.20	188.00
472.38	414.00
472.56	499.00
472.74	338.00
472.91	185.00
473.09	181.00
473.27	1394.00
473.44	556.00
473.62	183.00
473.80	402.00
473.97	181.00
474.15	169.00
474.33	190.00
474.50	362.00
474.68	168.00
474.86	204.00
475.03	4002.00
475.21	1253.00
475.39	358.00
475.56	171.00
475.74	186.00
475.92	345.00
476.09	169.00
476.27	175.00
476.45	167.00
476.62	161.00
476.80	533.00
476.97	187.00
477.15	171.00
477.33	337.00
477.50	172.00
477.68	183.00
477.86	872.00
478.03	491.00
478.21	199.00
478.38	196.00
478.56	342.00
478.74	329.00
478.91	545.00
479.09	177.00
479.26	367.00
479.44	246.00
479.62	297.00
479.79	331.00
479.97	173.00
480.14	163.00
480.32	178.00
480.49	166.00
480.67	183.00
480.85	199.00
481.02	720.00
481.20	170.00
481.37	474.00
481.55	1034.00
481.72	158.00
481.90	166.00
482.07	220.00
482.25	513.00
482.42	168.00
482.60	166.00
482.78	368.00
482.95	335.00
483.13	189.00
483.30	215.00
483.48	181.00
483.65	176.00
483.83	182.00
484.00	337.00
484.18	169.00
484.35	370.00
484.53	1749.00
484.70	149.00
484.88	170.00
485.05	185.00
485.23	356.00
485.40	181.00
485.58	207.00
485.75	497.00
485.93	167.00
486.10	172.00
486.27	231.00
486.45	357.00
486.62	348.00
486.80	348.00
486.97	181.00
487.15	180.00
487.32	168.00
487.50	187.00
487.67	316.00
487.85	184.00
488.02	335.00
488.19	510.00
488.37	184.00
488.54	741.00
488.72	384.00
488.89	198.00
489.07	1377.00
489.24	177.00
489.41	370.00
489.59	193.00
489.76	334.00
489.94	332.00
490.11	222.00
490.28	512.00
490.46	166.00
490.63	224.00
490.81	167.00
490.98	187.00
491.15	2075.00
491.33	142.00
491.50	719.00
491.68	172.00
491.85	548.00
492.02	673.00
492.20	180.00
492.37	367.00
492.54	534.00
492.72	662.00
492.89	403.00
493.06	335.00
493.24	166.00
493.41	184.00
493.58	331.00
493.76	184.00
493.93	187.00
494.10	207.00
494.28	191.00
494.45	396.00
494.62	179.00
494.80	331.00
494.97	227.00
495.14	281.00
495.32	203.00
495.49	307.00
495.66	172.00
495.84	332.00
496.01	2178.00
496.18	176.00
496.36	204.00
496.53	173.00
496.70	207.00
496.87	1534.00
497.05	144.00
497.22	464.00
497.39	163.00
497.57	167.00
497.74	184.00
497.91	369.00
498.08	180.00
498.26	306.00
498.43	171.00
498.60	174.00
498.77	189.00
498.95	555.00
499.12	394.00
499.29	1364.00
499.46	152.00
499.64	329.00
499.81	182.00
499.98	190.00
500.15	353.00
500.33	330.00
500.50	182.00
500.67	317.00
500.84	168.00
501.01	169.00
501.19	171.00
501.36	185.00
501.53	179.00
501.70	259.00
501.87	1223.00
502.05	148.00
502.22	331.00
502.39	181.00
502.56	194.00
502.73	333.00
502.91	170.00
503.08	1009.00
503.25	326.00
503.42	634.00
503.59	294.00
503.77	202.00
503.94	356.00
504.11	166.00
504.28	208.00
504.45	190.00
504.62	171.00
504.79	200.00
504.97	191.00
505.14	346.00
505.31	233.00
505.48	193.00
505.65	170.00
505.82	343.00
505.99	178.00
506.17	331.00
506.34	225.00
506.51	296.00
506.68	183.00
506.85	167.00
507.02	244.00
507.19	344.00
507.36	363.00
507.53	505.00
507.71	175.00
507.88	315.00
508.05	231.00
508.22	2083.00
508.39	1596.00
508.56	132.00
508.73	160.00
508.90	180.00
509.07	379.00
509.24	359.00
509.41	216.00
509.58	258.00
509.76	188.00
509.93	175.00
510.10	360.00
510.27	333.00
510.44	174.00
510.61	191.00
510.78	1789.00
510.95	143.00
511.12	174.00
511.29	177.00
511.46	166.00
511.63	165.00
511.80	214.00
511.97	337.00
512.14	167.00
512.31	505.00
512.48	500.00
512.65	178.00
512.82	356.00
512.99	640.00
513.16	163.00
513.33	184.00
513.50	207.00
513.67	355.00
513.84	177.00
514.01	177.00
514.18	175.00
514.35	172.00
514.52	179.00
514.69	188.00
514.86	327.00
515.03	174.00
515.20	170.00
515.37	200.00
515.54	173.00
515.71	441.00
515.88	188.00
516.05	1922.00
516.22	139.00
516.39	177.00
516.56	182.00
516.73	1544.00
516.90	288.00
517.06	1735.00
517.23	389.00
517.40	194.00
517.57	211.00
517.74	205.00
517.91	330.00
518.08	1003.00
518.25	364.00
518.42	166.00
518.59	326.00
518.76	341.00
518.93	337.00
519.09	532.00
519.26	170.00
519.43	388.00
519.60	349.00
519.77	170.00
519.94	627.00
520.11	177.00
520.28	174.00
520.45	1063.00
520.61	155.00
520.78	327.00
520.95	231.00
521.12	1535.00
521.29	145.00
521.46	210.00
521.63	174.00
521.79	179.00
521.96	286.00
522.13	164.00
522.30	166.00
522.47	181.00
522.64	2319.00
522.80	243.00
522.97	334.00
523.14	177.00
523.31	399.00
523.48	211.00
523.65	503.00
523.81	338.00
523.98	162.00
524.15	192.00
524.32	187.00
524.49	2382.00
524.65	362.00
524.82	603.00
524.99	174.00
525.16	170.00
525.33	182.00
525.49	178.00
525.66	164.00
525.83	347.00
526.00	165.00
526.17	198.00
526.33	180.00
526.50	315.00
526.67	1175.00
526.84	899.00
527.00	150.00
527.17	360.00
527.34	167.00
527.51	170.00
527.67	202.00
527.84	345.00
528.01	353.00
528.18	535.00
528.34	158.00
528.51	211.00
528.68	192.00
528.85	174.00
529.01	181.00
529.18	313.00
529.35	176.00
529.51	336.00
529.68	725.00
529.85	218.00
530.02	362.00
530.18	182.00
530.35	765.00
530.52	332.00
530.68	311.00
530.85	185.00
531.02	343.00
531.18	178.00
531.35	166.00
531.52	166.00
531.68	163.00
531.85	908.00
532.02	155.00
532.18	163.00
532.35	167.00
532.52	357.00
532.68	188.00
532.85	364.00
533.02	367.00
533.18	348.00
533.35	174.00
533.52	177.00
533.68	392.00
533.85	366.00
534.02	193.00
534.18	1898.00
534.35	140.00
534.51	341.00
534.68	351.00
534.85	171.00
535.01	193.00
535.18	172.00
535.35	184.00
535.51	327.00
535.68	190.00
535.84	163.00
536.01	660.00
536.18	423.00
536.34	183.00
536.51	548.00
536.67	420.00
536.84	174.00
537.00	167.00
537.17	420.00
537.34	196.00
537.50	686.00
537.67	162.00
537.83	380.00
538.00	188.00
538.16	175.00
538.33	209.00
538.50	187.00
538.66	370.00
538.83	331.00
538.99	206.00
539.16	449.00
539.32	170.00
539.49	169.00
539.65	280.00
539.82	210.00
539.98	197.00
540.15	339.00
540.31	182.00
540.48	181.00
540.65	193.00
540.81	232.00
540.98	173.00
541.14	700.00
541.31	159.00
541.47	327.00
541.64	174.00
541.80	167.00
541.97	168.00
542.13	165.00
542.29	194.00
542.46	343.00
542.62	187.00
542.79	1550.00
542.95	152.00
543.12	160.00
543.28	482.00
543.45	205.00
543.61	1985.00
543.78	133.00
543.94	186.00
544.11	197.00
544.27	332.00
544.44	180.00
544.60	1900.00
544.76	344.00
544.93	168.00
545.09	325.00
545.26	177.00
545.42	335.00
545.59	878.00
545.75	528.00
545.91	770.00
546.08	349.00
546.24	281.00
546.41	327.00
546.57	168.00
546.73	345.00
546.90	344.00
547.06	160.00
547.23	160.00
547.39	363.00
547.55	463.00
547.72	378.00
547.88	182.00
548.05	185.00
548.21	186.00
548.37	233.00
548.54	175.00
548.70	211.00
548.86	509.00
549.03	380.00
549.19	346.00
549.36	189.00
549.52	320.00
549.68	171.00
549.85	355.00
550.01	1014.00
550.17	162.00
550.34	203.00
550.50	1623.00
550.66	138.00
550.83	347.00
550.99	164.00
551.15	366.00
551.32	201.00
551.48	178.00
551.64	359.00
551.81	190.00
551.97	202.00
552.13	205.00
552.29	174.00
552.46	331.00
552.62	185.00
552.78	198.00
552.95	542.00
553.11	179.00
553.27	165.00
553.43	585.00
553.60	169.00
553.76	399.00
553.92	204.00
554.09	188.00
554.25	354.00
554.41	343.00
554.57	786.00
554.74	333.00
554.90	337.00
555.06	193.00
555.22	199.00
555.39	184.00
555.55	186.00
555.71	177.00
555.87	303.00
556.04	169.00
556.20	172.00
556.36	316.00
556.52	183.00
556.69	354.00
556.85	925.00
557.01	188.00
557.17	204.00
557.33	167.00
557.50	215.00
557.66	165.00
557.82	181.00
557.98	178.00
558.14	516.00
558.31	409.00
558.47	166.00
558.63	332.00
558.79	501.00
558.95	211.00
559.12	172.00
559.28	182.00
559.44	286.00
559.60	169.00
559.76	169.00
559.92	340.00
560.09	1027.00
560.25	310.00
560.41	402.00
560.57	344.00
560.73	1471.00
560.89	137.00
561.05	331.00
561.22	335.00
561.38	185.00
561.54	252.00
561.70	182.00
561.86	192.00
562.02	192.00
562.18	174.00
562.34	515.00
562.51	356.00
562.67	181.00
562.83	339.00
562.99	353.00
563.15	1084.00
563.31	502.00
563.47	358.00
563.63	173.00
563.79	185.00
563.95	310.00
564.12	180.00
564.28	484.00
564.44	330.00
564.60	164.00
564.76	167.00
564.92	182.00
565.08	335.00
565.24	164.00
565.40	311.00
565.56	178.00
565.72	220.00
565.88	170.00
566.04	509.00
566.20	194.00
566.36	202.00
566.52	208.00
566.69	334.00
566.85	532.00
567.01	555.00
567.17	352.00
567.33	890.00
567.49	176.00
567.65	192.00
567.81	177.00
567.97	169.00
568.13	401.00
568.29	171.00
568.45	165.00
568.61	355.00
568.77	329.00
568.93	191.00
569.09	177.00
569.25	864.00
569.41	175.00
569.57	396.00
569.73	333.00
569.89	190.00
570.05	880.00
570.21	157.00
570.37	440.00
570.53	166.00
570.68	199.00
570.84	165.00
571.00	323.00
571.16	385.00
571.32	361.00
571.48	403.00
571.64	374.00
571.80	344.00
571.96	465.00
572.12	166.00
572.28	496.00
572.44	369.00
572.60	334.00
572.76	167.00
572.92	205.00
573.08	166.00
573.23	531.00
573.39	411.00
573.55	181.00
573.71	163.00
573.87	163.00
574.03	330.00
574.19	175.00
574.35	509.00
574.51	182.00
574.67	178.00
574.82	493.00
574.98	161.00
575.14	342.00
575.30	336.00
575.46	177.00
575.62	407.00
575.78	280.00
575.94	181.00
576.09	176.00
576.25	186.00
576.41	332.00
576.57	181.00
576.73	386.00
576.89	197.00
577.05	539.00
577.20	505.00
577.36	443.00
577.52	200.00
577.68	402.00
577.84	183.00
578.00	2056.00
578.15	381.00
578.31	1067.00
578.47	151.00
578.63	195.00
578.79	288.00
578.94	179.00
579.10	350.00
579.26	575.00
579.42	183.00
579.58	184.00
579.73	251.00
579.89	168.00
580.05	185.00
580.21	396.00
580.37	172.00
580.52	477.00
580.68	561.00
580.84	173.00
581.00	178.00
581.15	345.00
581.31	205.00
581.47	164.00
581.63	424.00
581.78	498.00
581.94	402.00
582.10	2048.00
582.26	424.00
582.41	185.00
582.57	174.00
582.73	343.00
582.89	202.00
583.04	529.00
583.20	171.00
583.36	183.00
583.52	171.00
583.67	182.00
583.83	491.00
583.99	177.00
584.14	180.00
584.30	332.00
584.46	169.00
584.62	360.00
584.77	341.00
584.93	393.00
585.09	1842.00
585.24	147.00
585.40	998.00
585.56	184.00
585.71	174.00
585.87	358.00
586.03	191.00
586.18	509.00
586.34	1184.00
586.50	375.00
586.65	360.00
586.81	231.00
586.97	346.00
587.12	348.00
587.28	1363.00
587.44	369.00
587.59	292.00
587.75	183.00
587.91	333.00
588.06	174.00
588.22	338.00
